#
#   version : pre1.0-239-gcf65bfc
#    num_fr : 69
#    num_tr : 3625
#      time : 20180521 03:54:53.972 UTC
#      unix : 1526874893.972926
#       ntp : LOCK 13218 6756 4
#       seq : 81741
#       mul : 0 [A]
#      site : 02
#    latlon : 43.1928 -81.3157 324.0
#      text : Elginfield_Wide_G4-18-C
#    stream : KT
#     plate : metal_20180201_02_pre1.0-177-g5127e76
#      geom : 900 900
#    filter : 0
#
#  fr    time    sum     seq       cx       cy      th      phi     lsp    mag  flag   bak    max
   74  -0.213  43756   81724  170.358  128.812  36.491   69.999 -11.464   4.57  0000 474.4 1663.0
   75  -0.200  48078   81725  175.053  130.723  36.638   70.193 -11.551   4.48  0000 497.3 1928.0
   76  -0.188  37451   81726  178.392  132.530  36.738   70.357 -11.125   4.90  0000 514.9 1738.0
   77  -0.175  54261   81727  184.421  135.583  36.921   70.638 -11.632   4.40  0000 549.3 2241.0
   78  -0.163  60591   81728  189.080  138.234  37.061   70.871 -11.836   4.19  0000 584.7 2204.0
   79  -0.150  80848   81729  193.262  140.515  37.187   71.073 -12.204   3.83  0000 608.8 2889.0
   80  -0.138  91917   81730  197.340  141.871  37.319   71.218 -12.396   3.63  0000 628.4 3080.0
   81  -0.125 104916   81731  202.805  144.842  37.485   71.479 -12.617   3.41  0000 658.5 3460.0
   82  -0.113 107891   81732  207.022  147.351  37.612   71.692 -12.565   3.46  0000 685.8 3551.0
   83  -0.100 116658   81733  211.559  149.852  37.751   71.907 -12.694   3.34  0000 707.9 3504.0
   84  -0.088 151344   81734  215.975  152.222  37.887   72.112 -13.071   2.96  0000 733.2 4739.0
   84  -0.088 155196   81734  216.239  152.508  37.894   72.133 -13.069   2.96  0004 736.6 4739.0
   85  -0.075 147554   81735  220.518  154.559  38.028   72.316 -12.980   3.05  0000 756.2 4575.0
   86  -0.063 197827   81736  225.205  156.484  38.179   72.497 -13.356   2.67  0000 781.4 5329.0
   87  -0.050 198666   81737  229.749  159.088  38.318   72.714 -13.405   2.63  0000 808.9 5760.0
   87  -0.050 203149   81737  229.930  159.649  38.320   72.749 -13.406   2.62  0004 808.6 5760.0
   88  -0.038 206772   81738  234.465  161.010  38.471   72.892 -13.391   2.64  0000 834.5 5641.0
   89  -0.025 213943   81739  238.417  163.303  38.593   73.080 -13.414   2.62  0000 857.4 6316.0
   89  -0.025 225533   81739  239.027  163.506  38.613   73.100 -13.420   2.61  0004 861.0 6316.0
   90  -0.013 243158   81740  243.085  165.719  38.740   73.284 -13.634   2.40  0000 884.8 6762.0
   91   0.000 293177   81741  247.430  167.992  38.877   73.474 -13.787   2.24  0000 908.8 7731.0
   91   0.000 293597   81741  247.754  167.997  38.888   73.479 -13.787   2.24  0004 908.8 7731.0
   92   0.013 290961   81742  251.685  170.372  39.010   73.668 -13.798   2.23  0000 937.8 7706.0
   93   0.025 275176   81743  256.346  172.336  39.162   73.843 -13.775   2.25  0000 979.7 7714.0
   93   0.025 273916   81743  256.939  172.364  39.183   73.852 -13.775   2.25  0004 979.7 7714.0
   94   0.038 289511   81744  260.446  174.564  39.291   74.024 -13.774   2.26  0000 1016.8 8159.0
   95   0.050 282066   81745  264.149  176.894  39.406   74.205 -13.757   2.27  0000 1039.8 8343.0
   95   0.050 281149   81745  264.683  177.438  39.421   74.243 -13.750   2.28  0004 1043.8 8343.0
   96   0.063 238921   81746  268.292  179.219  39.537   74.390 -13.540   2.49  0000 1064.7 8217.0
   96   0.063 249083   81746  269.147  179.401  39.566   74.411 -13.548   2.48  0004 1067.4 8217.0
   97   0.075 235702   81747  273.142  181.096  39.697   74.558 -13.533   2.50  0000 1081.2 6593.0
   97   0.075 232985   81747  273.655  181.381  39.714   74.580 -13.533   2.50  0004 1081.1 6593.0
   98   0.088 277832   81748  277.596  183.694  39.838   74.760 -13.740   2.29  0000 1083.1 7878.0
   99   0.100 252746   81749  281.857  185.110  39.981   74.893 -13.674   2.36  0000 1084.4 7332.0
  100   0.113 244050   81750  285.623  187.891  40.096   75.095 -13.566   2.46  0000 1104.7 6817.0
  100   0.113 246498   81750  286.094  188.057  40.112   75.110 -13.563   2.47  0004 1115.4 6817.0
  101   0.125 262940   81751  290.377  189.947  40.253   75.267 -13.674   2.36  0000 1139.2 7274.0
  102   0.138 219666   81752  294.081  191.469  40.376   75.396 -13.518   2.51  0000 1165.1 5884.0
  103   0.150 233409   81753  298.637  194.012  40.523   75.592 -13.491   2.54  0000 1190.8 6974.0
  104   0.163 248147   81754  302.408  195.281  40.651   75.706 -13.608   2.42  0000 1200.0 7407.0
  105   0.175 216802   81755  306.058  197.950  40.764   75.896 -13.512   2.52  0000 1208.0 6387.0
  106   0.188 178324   81756  310.631  200.019  40.915   76.062 -13.152   2.88  0000 1227.3 5559.0
  107   0.200 206640   81757  314.323  202.670  41.031   76.250 -13.413   2.62  0000 1244.3 5841.0
  108   0.213 215051   81758  318.191  204.331  41.160   76.384 -13.454   2.58  0000 1261.2 6119.0
  109   0.225 212226   81759  322.865  206.362  41.317   76.547 -13.419   2.61  0000 1281.2 6293.0
  110   0.238 178448   81760  325.997  208.459  41.416   76.696 -13.265   2.76  0000 1297.8 5322.0
  111   0.250 200769   81761  330.654  210.597  41.572   76.862 -13.412   2.62  0000 1312.3 6003.0
  112   0.263 179738   81762  334.067  212.410  41.684   76.997 -13.269   2.76  0000 1324.0 5828.0
  113   0.288 134642   81764  340.101  215.804  41.882   77.244 -13.241   2.79  0000 1342.4 5770.0
  113   0.288 182125   81764  342.198  216.555  41.954   77.306 -13.253   2.78  0004 1345.3 5770.0
  114   0.300 173497   81765  346.150  218.135  42.088   77.432 -13.280   2.75  0000 1353.2 5300.0
  115   0.313 134451   81766  348.135  220.862  42.143   77.600 -13.157   2.87  0000 1362.4 5626.0
  116   0.326 173396   81767  354.957  222.216  42.385   77.739 -13.282   2.75  0000 1374.0 5655.0
  117   0.338 153998   81768  358.275  224.213  42.494   77.879 -13.096   2.93  0000 1382.7 5011.0
  118   0.351 182831   81769  363.208  226.686  42.659   78.059 -13.329   2.70  0000 1391.9 4692.0
  119   0.363 133779   81770  366.284  228.170  42.763   78.168 -12.941   3.09  0000 1400.6 5884.0
  120   0.376 144021   81771  370.232  230.134  42.896   78.310 -12.929   3.10  0000 1412.3 5139.0
  121   0.388 132313   81772  372.420  232.216  42.963   78.442 -12.833   3.20  0000 1424.1 4708.0
  122   0.401 136442   81773  377.737  233.436  43.152   78.555 -12.983   3.05  0000 1435.6 4784.0
  123   0.413 122025   81774  381.071  235.438  43.262   78.691 -12.859   3.17  0000 1450.5 4268.0
  124   0.426 107014   81775  383.978  238.147  43.353   78.862 -12.612   3.42  0000 1464.7 4738.0
  125   0.438 103580   81776  388.647  240.428  43.512   79.023 -12.533   3.50  0000 1477.8 4038.0
  126   0.451 111169   81777  393.557  242.781  43.679   79.190 -12.734   3.30  0000 1488.0 4185.0
  127   0.463 118667   81778  395.885  243.664  43.760   79.256 -12.756   3.27  0000 1491.9 3814.0
  128   0.476  79441   81779  399.879  245.254  43.898   79.373 -11.981   4.05  0000 1504.4 3662.0
  129   0.488  77533   81780  402.700  247.791  43.988   79.531 -12.048   3.98  0000 1518.6 3536.0
  130   0.513  98885   81782  410.736  250.474  44.270   79.736 -12.670   3.36  0000 1542.9 3814.0
  131   0.526  70928   81783  413.684  251.940  44.371   79.836 -12.279   3.75  0000 1549.2 3243.0
  132   0.538  76528   81784  415.307  254.430  44.417   79.980 -11.968   4.06  0000 1562.0 4021.0
